"Directivity Index"			
"Sound Power DI"		"Early Reflections DI"	
"Frequency [Hz]"	"[dB] Directivity Index "	"Frequency [Hz]"	"[dB] Directivity Index "
20.5078	-4.48408	20.5078	-1.28819
21.9727	-4.30275	21.9727	-1.39092
23.4375	-3.26618	23.4375	-0.800082
24.9023	-2.68339	24.9023	-0.576075
26.3672	-2.31594	26.3672	-0.493064
27.832	-2.29819	27.832	-0.516253
29.2969	-1.50823	29.2969	-0.297584
30.7617	-1.68647	30.7617	-0.409857
32.2266	-1.1664	32.2266	-0.252291
33.6914	-0.790119	33.6914	-0.129211
35.1563	-0.755721	35.1563	-0.131068
36.6211	-0.697937	36.6211	-0.132536
38.0859	-0.697703	38.0859	-0.17044
39.5508	-0.246928	39.5508	-0.001776
41.0156	-0.415779	41.0156	-0.0786838
42.4805	-0.226784	42.4805	-0.0252577
43.9453	-0.0918545	43.9453	0.055088
45.4102	-0.554929	45.4102	-0.131492
46.875	-0.898144	46.875	-0.284478
48.3398	-0.198009	48.3398	-0.0401269
51.2695	-0.134047	51.2695	0.00417743
52.7344	-0.466453	52.7344	-0.129359
54.1992	-0.492197	54.1992	-0.141192
55.6641	-0.640617	55.6641	-0.207194
58.5938	-0.557088	58.5938	-0.184208
60.0586	-0.539272	60.0586	-0.180861
62.9883	-0.500789	62.9883	-0.168901
64.4531	-0.505886	64.4531	-0.170971
67.3828	-0.469914	67.3828	-0.164137
68.8477	-0.387898	68.8477	-0.136941
71.7773	-0.316886	71.7773	-0.11761
74.707	-0.409445	74.707	-0.147057
77.6367	-0.452279	77.6367	-0.167245
79.1016	-0.51531	79.1016	-0.193237
82.0313	-0.483129	82.0313	-0.188561
84.9609	-0.459827	84.9609	-0.179047
87.8906	-0.501721	87.8906	-0.189747
90.8203	-0.47282	90.8203	-0.187699
95.2148	-0.537787	95.2148	-0.226743
98.1445	-0.492313	98.1445	-0.193587
101.074	-0.377021	101.074	-0.146044
105.469	-0.517087	105.469	-0.20058
108.398	-0.522629	108.398	-0.21632
112.793	-0.388484	112.793	-0.162269
117.188	-0.159712	117.188	-0.0774479
120.117	-0.178363	120.117	-0.0709692
124.512	-0.242911	124.512	-0.0958985
128.906	-0.23203	128.906	-0.0931368
133.301	-0.464239	133.301	-0.182196
139.16	-0.633508	139.16	-0.236131
143.555	-0.578915	143.555	-0.213063
147.949	-0.573096	147.949	-0.204123
153.809	-0.375107	153.809	-0.113028
159.668	-0.314363	159.668	-0.0982824
165.527	-0.304911	165.527	-0.085222
171.387	-0.446209	171.387	-0.146894
177.246	-0.454886	177.246	-0.134939
183.105	-0.382826	183.105	-0.0920307
188.965	-0.341005	188.965	-0.093107
196.289	-0.311609	196.289	-0.0964215
203.613	-0.351601	203.613	-0.104794
210.938	-0.275997	210.938	-0.0691364
218.262	-0.369935	218.262	-0.103939
225.586	-0.331233	225.586	-0.0710205
232.91	-0.263163	232.91	-0.0320277
241.699	-0.292882	241.699	-0.0387993
250.488	-0.177447	250.488	0.0312837
259.277	-0.169035	259.277	0.00738382
268.066	-0.202285	268.066	0.0156078
276.855	-0.142727	276.855	0.0946297
287.109	0.114566	287.109	0.168263
297.363	-0.0720275	297.363	0.106022
307.617	-0.325621	307.617	0.0515019
319.336	-0.134376	319.336	0.138954
329.59	0.00340455	329.59	0.188229
341.309	-0.0975175	341.309	0.19537
353.027	0.233727	353.027	0.334459
366.211	0.379411	366.211	0.383488
379.395	0.171566	379.395	0.279967
392.578	0.0788879	392.578	0.275527
405.762	0.166582	405.762	0.35911
420.41	0.0966926	420.41	0.343963
435.059	-0.0236725	435.059	0.352406
451.172	0.618593	451.172	0.593142
465.82	0.595795	465.82	0.629349
483.398	0.469984	483.398	0.610853
499.512	0.106268	499.512	0.408952
517.09	0.0736914	517.09	0.471251
536.133	-0.379481	536.133	0.517332
555.176	0.667172	555.176	0.755354
574.219	0.326142	574.219	0.607341
594.727	0.243004	594.727	0.692963
615.234	0.934459	615.234	0.804154
637.207	0.926079	637.207	0.743013
659.18	0.385671	659.18	0.654863
682.617	0.378067	682.617	0.798003
707.52	0.644408	707.52	0.734879
732.422	0.444911	732.422	0.794515
757.324	0.0861636	757.324	0.703641
785.156	0.152784	785.156	0.613824
811.523	-0.554831	811.523	0.420912
840.82	-1.15099	840.82	0.347394
870.117	-0.898199	870.117	0.525985
900.879	-0.395578	900.879	0.762342
933.105	-0.536512	933.105	0.549352
965.332	-0.198672	965.332	0.0718187
1,000.49	-1.54709	1,000.49	-0.259664
1,035.64	-1.5491	1,035.64	-0.883491
1,072.27	-2.45959	1,072.27	-1.50756
1,108.89	-1.28889	1,108.89	-1.00651
1,148.44	-1.05038	1,148.44	-0.779263
1,189.45	-0.850823	1,189.45	-0.49295
1,230.47	-1.1438	1,230.47	-0.574426
1,274.41	-0.992936	1,274.41	-0.450812
1,319.82	-0.847427	1,319.82	-0.0507524
1,366.7	-1.1587	1,366.7	-0.03364
1,413.57	-0.372172	1,413.57	0.289021
1,463.38	1.01948	1,463.38	0.724503
1,516.11	1.8235	1,516.11	0.863481
1,568.85	2.10838	1,568.85	1.07317
1,624.51	1.85523	1,624.51	0.80193
1,681.64	0.987848	1,681.64	0.266355
1,741.7	1.3413	1,741.7	0.314655
1,803.22	1.30131	1,803.22	0.378834
1,866.21	-0.248507	1,866.21	-0.638335
1,932.13	-1.39391	1,932.13	-0.487113
1,999.51	-1.10421	1,999.51	-0.248926
2,069.82	-0.633727	2,069.82	-0.568527
2,143.07	-0.390323	2,143.07	-0.50112
2,219.24	-1.8783	2,219.24	-1.34889
2,296.88	-1.78195	2,296.88	-1.48883
2,378.91	-2.43222	2,378.91	-1.80778
2,462.4	-2.06458	2,462.4	-1.64455
2,548.83	-1.05171	2,548.83	-1.17817
2,639.65	-0.891589	2,639.65	-1.10399
2,731.93	-1.29185	2,731.93	-1.88254
2,828.61	-2.0073	2,828.61	-2.6678
2,928.22	-0.832066	2,928.22	-1.66002
3,030.76	-0.058862	3,030.76	-0.877436
3,137.7	0.526887	3,137.7	-0.333514
3,249.02	0.628031	3,249.02	-0.238446
3,363.28	2.73133	3,363.28	1.13835
3,481.93	3.40272	3,481.93	1.65046
3,604.98	3.27541	3,604.98	1.87109
3,732.42	4.13358	3,732.42	2.37429
3,864.26	3.9256	3,864.26	2.26164
4,000.49	3.86877	4,000.49	2.21339
4,141.11	4.89567	4,141.11	2.58942
4,287.6	5.14147	4,287.6	2.6917
4,438.48	4.87624	4,438.48	2.63226
4,595.21	3.7319	4,595.21	2.14376
4,756.35	2.6113	4,756.35	1.03804
4,924.8	5.15328	4,924.8	1.83098
5,097.66	6.13107	5,097.66	2.26529
5,277.83	6.63163	5,277.83	2.57254
5,463.87	6.59232	5,463.87	2.51077
5,657.23	6.72511	5,657.23	2.65196
5,856.45	7.00936	5,856.45	2.89044
6,062.99	7.1553	6,062.99	2.98436
6,276.86	7.2926	6,276.86	3.03906
6,498.05	7.97512	6,498.05	3.50915
6,726.56	8.99673	6,726.56	4.06925
6,963.87	9.70471	6,963.87	4.36281
7,209.96	9.59337	7,209.96	4.30591
7,464.84	8.61268	7,464.84	4.06238
7,727.05	6.05205	7,727.05	3.49079
7,999.51	4.82826	7,999.51	3.40269
8,282.23	3.84823	8,282.23	3.51362
8,573.73	4.30479	8,573.73	3.97195
8,876.95	5.55235	8,876.95	4.07191
9,188.96	5.36063	9,188.96	2.93667
9,514.16	3.17902	9,514.16	1.37524
9,849.61	3.22956	9,849.61	1.7263
10,196.8	5.73675	10,196.8	3.21577
10,555.7	7.40911	10,555.7	4.26247
10,927.7	8.63136	10,927.7	4.96298
11,313	7.06471	11,313	4.9359
11,712.9	8.56651	11,712.9	4.75554
12,126	7.11997	12,126	4.01225
12,553.7	7.7028	12,553.7	4.12823
12,996.1	5.75763	12,996.1	2.98844
13,454.6	5.37732	13,454.6	3.18711
13,929.2	7.91183	13,929.2	5.21285
14,419.9	6.96885	14,419.9	4.16528
14,928.2	3.97348	14,928.2	2.3855
15,455.6	6.5373	15,455.6	2.96224
16,000.5	7.89455	16,000.5	3.86568
16,564.5	6.37775	16,564.5	3.24179
17,148.9	4.27975	17,148.9	1.19263
17,752.4	3.02748	17,752.4	0.0585626
18,379.4	3.16783	18,379.4	0.609906
19,026.9	3.80263	19,026.9	0.951689
19,697.8	4.45521	19,697.8	0.912138
19,999.5	4.05512	19,999.5	0.664611
